Source: Spectrum Viewer

Chart: Pulse Spectrum

Series: 
Wavelength (nm)	S (a.u.)
1179.9	0
1180.29	0
1180.68	0
1181.06	0
1181.45	0
1181.83	0
1182.22	0
1182.6	0
1182.99	0
1183.38	0
1183.76	0
1184.15	0
1184.53	0
1184.92	0
1185.3	0
1185.69	0
1186.07	0
1186.46	0
1186.85	0
1187.23	0
1187.62	0
1188	0
1188.39	0
1188.77	0
1189.16	0
1189.54	0
1189.93	0
1190.31	0
1190.7	0
1191.08	0
1191.47	0
1191.85	0
1192.24	0
1192.62	0
1193.01	0
1193.39	0
1193.78	0
1194.16	0
1194.55	0
1194.93	0
1195.32	0
1195.7	0
1196.09	0
1196.47	0
1196.86	0
1197.24	0
1197.63	0
1198.01	0
1198.4	0
1198.78	0
1199.16	0
1199.55	0
1199.93	0
1200.32	0
1200.7	0
1201.09	0
1201.47	0
1201.86	0
1202.24	0
1202.63	0
1203.01	0
1203.39	0
1203.78	0
1204.16	0
1204.55	0
1204.93	0
1205.32	0
1205.7	0
1206.08	0
1206.47	0
1206.85	0
1207.24	0
1207.62	0
1208	0
1208.39	0
1208.77	0
1209.16	0
1209.54	0
1209.92	0
1210.31	0
1210.69	0
1211.08	0
1211.46	0
1211.84	0
1212.23	0
1212.61	0
1213	0
1213.38	0
1213.76	0
1214.15	0
1214.53	0
1214.91	0
1215.3	0
1215.68	0
1216.06	0
1216.45	0
1216.83	0
1217.22	0
1217.6	0
1217.98	0
1218.37	0
1218.75	0
1219.13	0
1219.52	0
1219.9	0
1220.28	0
1220.67	0
1221.05	0
1221.43	0
1221.82	0
1222.2	0
1222.58	0
1222.97	0
1223.35	0
1223.73	0
1224.11	0
1224.5	0
1224.88	0
1225.26	0
1225.65	0
1226.03	0
1226.41	0
1226.8	0
1227.18	0
1227.56	0
1227.94	0
1228.33	0
1228.71	0
1229.09	0
1229.47	0
1229.86	0
1230.24	0
1230.62	0
1231.01	0
1231.39	0
1231.77	0
1232.15	0
1232.54	0
1232.92	0
1233.3	0
1233.68	0
1234.07	0
1234.45	0
1234.83	0
1235.21	0
1235.6	0
1235.98	0
1236.36	0
1236.74	0
1237.12	0
1237.51	0
1237.89	0
1238.27	0
1238.65	0
1239.04	0
1239.42	0
1239.8	0
1240.18	0
1240.56	0
1240.95	0
1241.33	0
1241.71	0
1242.09	0
1242.47	0
1242.86	0
1243.24	0
1243.62	0
1244	0
1244.38	0
1244.77	0
1245.15	0
1245.53	0
1245.91	0
1246.29	0
1246.67	0
1247.06	0
1247.44	0
1247.82	0
1248.2	0
1248.58	0
1248.96	0
1249.34	0
1249.73	0
1250.11	0
1250.49	0
1250.87	0
1251.25	0
1251.63	0
1252.01	0
1252.4	0
1252.78	0
1253.16	0
1253.54	0
1253.92	0
1254.3	0
1254.68	0
1255.06	0
1255.45	0
1255.83	0
1256.21	0
1256.59	0
1256.97	0
1257.35	0
1257.73	0
1258.11	0
1258.49	0
1258.87	0
1259.26	0
1259.64	0
1260.02	0
1260.4	0
1260.78	0
1261.16	0
1261.54	0
1261.92	0
1262.3	0
1262.68	0
1263.06	0
1263.44	0
1263.82	0
1264.21	0
1264.59	0
1264.97	0
1265.35	0
1265.73	0
1266.11	0
1266.49	0
1266.87	0
1267.25	0
1267.63	0
1268.01	0
1268.39	0
1268.77	0
1269.15	0
1269.53	0
1269.91	0
1270.29	0
1270.67	0
1271.05	0
1271.43	0
1271.81	0
1272.19	0
1272.57	0
1272.95	0
1273.33	0
1273.71	0
1274.09	0
1274.47	0
1274.85	0
1275.23	0
1275.61	0
1275.99	0
1276.37	0
1276.75	0
1277.13	0
1277.51	0
1277.89	0
1278.27	0
1278.65	0
1279.03	0
1279.41	0
1279.79	0
1280.17	0
1280.55	0
1280.93	0
1281.31	0
1281.69	0
1282.07	0
1282.45	0
1282.82	0
1283.2	0
1283.58	0
1283.96	0
1284.34	0
1284.72	0
1285.1	0
1285.48	0
1285.86	0
1286.24	0
1286.62	0
1287	0
1287.38	0
1287.75	0
1288.13	0
1288.51	0
1288.89	0
1289.27	0
1289.65	0
1290.03	0
1290.41	0
1290.79	0
1291.17	0
1291.54	0
1291.92	0
1292.3	0
1292.68	0
1293.06	0
1293.44	0
1293.82	0
1294.2	0
1294.57	0
1294.95	0
1295.33	0
1295.71	0
1296.09	0
1296.47	0
1296.85	0
1297.22	0
1297.6	0
1297.98	0
1298.36	0
1298.74	0
1299.12	0
1299.5	0
1299.87	0
1300.25	0
1300.63	0
1301.01	0
1301.39	0
1301.77	0
1302.14	0
1302.52	0
1302.9	0
1303.28	0
1303.66	0
1304.03	0
1304.41	0
1304.79	0
1305.17	0
1305.55	0
1305.92	0
1306.3	0
1306.68	0
1307.06	0
1307.44	0
1307.81	0
1308.19	0
1308.57	0
1308.95	0
1309.32	0
1309.7	0
1310.08	0
1310.46	0
1310.84	0
1311.21	0
1311.59	0
1311.97	0
1312.35	0
1312.72	0
1313.1	0
1313.48	0
1313.86	0
1314.23	0
1314.61	0
1314.99	0
1315.37	0
1315.74	0
1316.12	0
1316.5	0
1316.87	0
1317.25	0
1317.63	0
1318.01	0
1318.38	0
1318.76	0
1319.14	0
1319.52	0
1319.89	0
1320.27	0
1320.65	0
1321.02	0
1321.4	0
1321.78	0
1322.15	0
1322.53	0
1322.91	0
1323.29	0
1323.66	0
1324.04	0
1324.42	0
1324.79	0
1325.17	0
1325.55	0
1325.92	0
1326.3	0
1326.68	0
1327.05	0
1327.43	0
1327.81	0
1328.18	0
1328.56	0
1328.94	0
1329.31	0
1329.69	0
1330.06	0
1330.44	0
1330.82	0
1331.19	0
1331.57	0
1331.95	0
1332.32	0
1332.7	0
1333.08	0
1333.45	0
1333.83	0
1334.2	0
1334.58	0
1334.96	0
1335.33	0
1335.71	0
1336.08	0
1336.46	0
1336.84	0
1337.21	0
1337.59	0
1337.96	0
1338.34	0
1338.72	0
1339.09	0
1339.47	0
1339.84	0
1340.22	0
1340.6	0
1340.97	0
1341.35	0
1341.72	0
1342.1	0
1342.47	0
1342.85	0
1343.23	0
1343.6	0
1343.98	0
1344.35	0
1344.73	0
1345.1	0
1345.48	0
1345.85	0
1346.23	0
1346.61	0
1346.98	0
1347.36	0
1347.73	0
1348.11	0
1348.48	0
1348.86	0
1349.23	0
1349.61	0
1349.98	0
1350.36	0
1350.73	0
1351.11	0
1351.48	0
1351.86	0
1352.23	0
1352.61	0
1352.98	0
1353.36	0
1353.73	0
1354.11	0
1354.48	0
1354.86	0
1355.23	0
1355.61	0
1355.98	0
1356.36	0
1356.73	0
1357.11	0
1357.48	0
1357.86	0
1358.23	0
1358.61	0
1358.98	0
1359.35	0
1359.73	0
1360.1	0
1360.48	0
1360.85	0
1361.23	0
1361.6	0
1361.98	0
1362.35	0
1362.72	0
1363.1	0
1363.47	0
1363.85	0
1364.22	0
1364.6	0
1364.97	0
1365.34	0
1365.72	0
1366.09	0
1366.47	0
1366.84	0
1367.22	0
1367.59	0
1367.96	0
1368.34	0
1368.71	0
1369.09	0
1369.46	0
1369.83	44
1370.21	37
1370.58	42
1370.96	42
1371.33	41
1371.7	43
1372.08	42
1372.45	42
1372.82	40
1373.2	42
1373.57	42
1373.95	44
1374.32	41
1374.69	42
1375.07	43
1375.44	41
1375.81	42
1376.19	42
1376.56	41
1376.93	43
1377.31	41
1377.68	41
1378.05	43
1378.43	42
1378.8	42
1379.17	41
1379.55	42
1379.92	44
1380.29	40
1380.67	42
1381.04	41
1381.41	42
1381.79	41
1382.16	43
1382.53	42
1382.91	42
1383.28	42
1383.65	36
1384.03	41
1384.4	43
1384.77	43
1385.14	42
1385.52	43
1385.89	42
1386.26	42
1386.64	43
1387.01	42
1387.38	41
1387.75	42
1388.13	41
1388.5	42
1388.87	42
1389.25	40
1389.62	43
1389.99	42
1390.36	41
1390.74	41
1391.11	41
1391.48	42
1391.85	43
1392.23	42
1392.6	42
1392.97	41
1393.34	41
1393.72	41
1394.09	41
1394.46	44
1394.83	41
1395.21	42
1395.58	43
1395.95	42
1396.32	43
1396.69	42
1397.07	42
1397.44	43
1397.81	44
1398.18	44
1398.55	43
1398.93	42
1399.3	43
1399.67	40
1400.04	43
1400.41	44
1400.79	42
1401.16	41
1401.53	43
1401.9	43
1402.27	42
1402.65	43
1403.02	42
1403.39	41
1403.76	42
1404.13	42
1404.51	40
1404.88	43
1405.25	42
1405.62	44
1405.99	42
1406.36	42
1406.74	40
1407.11	42
1407.48	42
1407.85	42
1408.22	41
1408.59	36
1408.96	42
1409.34	42
1409.71	42
1410.08	43
1410.45	43
1410.82	43
1411.19	43
1411.56	44
1411.93	42
1412.31	43
1412.68	42
1413.05	43
1413.42	43
1413.79	42
1414.16	42
1414.53	44
1414.9	40
1415.27	42
1415.65	45
1416.02	41
1416.39	42
1416.76	43
1417.13	42
1417.5	43
1417.87	42
1418.24	42
1418.61	42
1418.98	43
1419.35	42
1419.73	42
1420.1	41
1420.47	40
1420.84	42
1421.21	41
1421.58	43
1421.95	43
1422.32	42
1422.69	42
1423.06	44
1423.43	43
1423.8	44
1424.17	42
1424.54	42
1424.91	41
1425.28	43
1425.65	44
1426.02	41
1426.39	42
1426.76	44
1427.14	43
1427.51	38
1427.88	42
1428.25	42
1428.62	42
1428.99	44
1429.36	42
1429.73	43
1430.1	42
1430.47	43
1430.84	42
1431.21	43
1431.58	42
1431.95	42
1432.32	42
1432.69	42
1433.06	41
1433.43	43
1433.8	41
1434.17	43
1434.54	42
1434.91	42
1435.28	44
1435.64	43
1436.01	43
1436.38	43
1436.75	40
1437.12	43
1437.49	44
1437.86	40
1438.23	43
1438.6	42
1438.97	42
1439.34	42
1439.71	41
1440.08	42
1440.45	42
1440.82	42
1441.19	44
1441.56	39
1441.93	42
1442.3	41
1442.67	44
1443.03	41
1443.4	33
1443.77	42
1444.14	41
1444.51	42
1444.88	43
1445.25	42
1445.62	41
1445.99	41
1446.36	42
1446.73	42
1447.09	44
1447.46	43
1447.83	42
1448.2	42
1448.57	40
1448.94	42
1449.31	42
1449.68	42
1450.05	42
1450.41	43
1450.78	42
1451.15	41
1451.52	40
1451.89	43
1452.26	42
1452.63	41
1453	43
1453.36	41
1453.73	44
1454.1	41
1454.47	42
1454.84	42
1455.21	42
1455.57	43
1455.94	43
1456.31	40
1456.68	42
1457.05	42
1457.42	42
1457.78	42
1458.15	42
1458.52	42
1458.89	41
1459.26	41
1459.63	44
1459.99	40
1460.36	41
1460.73	41
1461.1	42
1461.47	42
1461.83	40
1462.2	42
1462.57	43
1462.94	42
1463.31	41
1463.67	41
1464.04	42
1464.41	42
1464.78	42
1465.15	41
1465.51	39
1465.88	40
1466.25	41
1466.62	41
1466.98	43
1467.35	41
1467.72	43
1468.09	42
1468.46	41
1468.82	41
1469.19	42
1469.56	43
1469.93	42
1470.29	41
1470.66	42
1471.03	41
1471.4	43
1471.76	42
1472.13	41
1472.5	41
1472.86	42
1473.23	41
1473.6	39
1473.97	41
1474.33	41
1474.7	40
1475.07	42
1475.44	42
1475.8	42
1476.17	42
1476.54	41
1476.9	41
1477.27	41
1477.64	41
1478	42
1478.37	41
1478.74	40
1479.11	41
1479.47	41
1479.84	42
1480.21	42
1480.57	43
1480.94	41
1481.31	43
1481.67	42
1482.04	42
1482.41	43
1482.77	40
1483.14	41
1483.51	40
1483.87	41
1484.24	40
1484.61	42
1484.97	40
1485.34	43
1485.71	42
1486.07	41
1486.44	36
1486.81	41
1487.17	41
1487.54	40
1487.9	42
1488.27	40
1488.64	42
1489	42
1489.37	41
1489.74	41
1490.1	43
1490.47	40
1490.83	41
1491.2	42
1491.57	41
1491.93	41
1492.3	40
1492.66	40
1493.03	42
1493.4	41
1493.76	40
1494.13	41
1494.49	41
1494.86	41
1495.23	41
1495.59	41
1495.96	40
1496.32	41
1496.69	34
1497.06	40
1497.42	42
1497.79	42
1498.15	38
1498.52	41
1498.88	41
1499.25	42
1499.62	42
1499.98	41
1500.35	39
1500.71	41
1501.08	39
1501.44	42
1501.81	42
1502.17	41
1502.54	40
1502.9	40
1503.27	39
1503.64	40
1504	42
1504.37	41
1504.73	42
1505.1	42
1505.46	41
1505.83	42
1506.19	40
1506.56	42
1506.92	41
1507.29	41
1507.65	42
1508.02	40
1508.38	40
1508.75	39
1509.11	40
1509.48	41
1509.84	41
1510.21	42
1510.57	42
1510.94	41
1511.3	40
1511.67	41
1512.03	41
1512.4	43
1512.76	41
1513.13	41
1513.49	42
1513.85	36
1514.22	40
1514.58	41
1514.95	40
1515.31	43
1515.68	40
1516.04	41
1516.41	42
1516.77	41
1517.14	41
1517.5	40
1517.86	42
1518.23	43
1518.59	41
1518.96	42
1519.32	41
1519.69	41
1520.05	41
1520.41	40
1520.78	42
1521.14	41
1521.51	41
1521.87	41
1522.24	42
1522.6	41
1522.96	41
1523.33	39
1523.69	41
1524.06	41
1524.42	40
1524.78	40
1525.15	42
1525.51	40
1525.88	42
1526.24	41
1526.6	41
1526.97	41
1527.33	41
1527.69	42
1528.06	40
1528.42	42
1528.79	42
1529.15	40
1529.51	42
1529.88	37
1530.24	41
1530.6	43
1530.97	42
1531.33	41
1531.69	42
1532.06	42
1532.42	41
1532.78	42
1533.15	42
1533.51	41
1533.87	42
1534.24	41
1534.6	41
1534.96	40
1535.33	41
1535.69	41
1536.05	43
1536.42	42
1536.78	42
1537.14	40
1537.51	41
1537.87	40
1538.23	43
1538.6	42
1538.96	42
1539.32	40
1539.68	42
1540.05	41
1540.41	41
1540.77	42
1541.14	40
1541.5	41
1541.86	42
1542.23	40
1542.59	40
1542.95	44
1543.31	41
1543.68	40
1544.04	41
1544.4	42
1544.76	40
1545.13	41
1545.49	41
1545.85	41
1546.21	42
1546.58	41
1546.94	41
1547.3	42
1547.66	41
1548.03	41
1548.39	41
1548.75	42
1549.11	42
1549.48	42
1549.84	40
1550.2	42
1550.56	41
1550.93	41
1551.29	42
1551.65	42
1552.01	42
1552.37	43
1552.74	43
1553.1	42
1553.46	41
1553.82	41
1554.18	42
1554.55	42
1554.91	42
1555.27	42
1555.63	42
1555.99	42
1556.36	42
1556.72	43
1557.08	43
1557.44	34
1557.8	42
1558.17	42
1558.53	43
1558.89	43
1559.25	43
1559.61	42
1559.97	44
1560.34	43
1560.7	41
1561.06	42
1561.42	43
1561.78	42
1562.14	43
1562.5	43
1562.87	41
1563.23	43
1563.59	43
1563.95	42
1564.31	40
1564.67	44
1565.03	41
1565.4	43
1565.76	43
1566.12	45
1566.48	43
1566.84	44
1567.2	44
1567.56	44
1567.92	44
1568.29	43
1568.65	44
1569.01	44
1569.37	43
1569.73	44
1570.09	42
1570.45	44
1570.81	44
1571.17	45
1571.53	44
1571.89	45
1572.26	44
1572.62	44
1572.98	45
1573.34	43
1573.7	45
1574.06	46
1574.42	42
1574.78	44
1575.14	43
1575.5	43
1575.86	43
1576.22	45
1576.58	41
1576.94	44
1577.3	42
1577.67	42
1578.03	45
1578.39	44
1578.75	45
1579.11	46
1579.47	44
1579.83	44
1580.19	45
1580.55	44
1580.91	44
1581.27	43
1581.63	45
1581.99	44
1582.35	44
1582.71	44
1583.07	45
1583.43	45
1583.79	45
1584.15	46
1584.51	44
1584.87	46
1585.23	46
1585.59	45
1585.95	46
1586.31	44
1586.67	46
1587.03	45
1587.39	46
1587.75	45
1588.11	45
1588.47	46
1588.83	45
1589.19	47
1589.55	45
1589.91	46
1590.27	46
1590.63	49
1590.99	47
1591.35	46
1591.71	46
1592.07	48
1592.42	47
1592.78	48
1593.14	46
1593.5	47
1593.86	48
1594.22	47
1594.58	48
1594.94	49
1595.3	49
1595.66	50
1596.02	50
1596.38	49
1596.74	50
1597.1	52
1597.46	50
1597.81	52
1598.17	51
1598.53	50
1598.89	53
1599.25	53
1599.61	53
1599.97	54
1600.33	55
1600.69	55
1601.05	55
1601.4	56
1601.76	55
1602.12	56
1602.48	55
1602.84	59
1603.2	58
1603.56	59
1603.92	60
1604.28	60
1604.63	60
1604.99	61
1605.35	61
1605.71	63
1606.07	65
1606.43	68
1606.79	64
1607.14	64
1607.5	63
1607.86	64
1608.22	68
1608.58	69
1608.94	67
1609.29	66
1609.65	68
1610.01	70
1610.37	71
1610.73	68
1611.09	69
1611.44	71
1611.8	73
1612.16	73
1612.52	76
1612.88	76
1613.24	78
1613.59	73
1613.95	79
1614.31	78
1614.67	76
1615.03	75
1615.38	76
1615.74	76
1616.1	78
1616.46	80
1616.82	78
1617.17	79
1617.53	74
1617.89	73
1618.25	77
1618.6	78
1618.96	78
1619.32	77
1619.68	75
1620.04	78
1620.39	77
1620.75	78
1621.11	77
1621.47	74
1621.82	74
1622.18	79
1622.54	75
1622.9	78
1623.25	75
1623.61	75
1623.97	71
1624.33	74
1624.68	78
1625.04	76
1625.4	75
1625.75	73
1626.11	75
1626.47	73
1626.83	77
1627.18	78
1627.54	75
1627.9	75
1628.26	70
1628.61	73
1628.97	74
1629.33	74
1629.68	71
1630.04	71
1630.4	71
1630.75	73
1631.11	72
1631.47	71
1631.83	71
1632.18	71
1632.54	74
1632.9	76
1633.25	72
1633.61	66
1633.97	66
1634.32	66
1634.68	65
1635.04	67
1635.39	62
1635.75	62
1636.11	61
1636.46	61
1636.82	64
1637.18	65
1637.53	58
1637.89	57
1638.25	60
1638.6	59
1638.96	58
1639.31	55
1639.67	55
1640.03	58
1640.38	56
1640.74	56
1641.1	54
1641.45	55
1641.81	53
1642.16	53
1642.52	56
1642.88	54
1643.23	55
1643.59	54
1643.95	49
1644.3	51
1644.66	52
1645.01	53
1645.37	52
1645.73	53
1646.08	54
1646.44	52
1646.79	54
1647.15	54
1647.51	52
1647.86	54
1648.22	55
1648.57	54
1648.93	56
1649.28	53
1649.64	57
1650	60
1650.35	60
1650.71	60
1651.06	60
1651.42	61
1651.77	64
1652.13	63
1652.48	63
1652.84	65
1653.2	66
1653.55	66
1653.91	68
1654.26	69
1654.62	71
1654.97	71
1655.33	71
1655.68	73
1656.04	73
1656.39	74
1656.75	74
1657.1	77
1657.46	77
1657.81	79
1658.17	79
1658.52	81
1658.88	81
1659.23	84
1659.59	83
1659.94	82
1660.3	85
1660.65	86
1661.01	86
1661.36	88
1661.72	88
1662.07	88
1662.43	88
1662.78	89
1663.14	89
1663.49	93
1663.85	90
1664.2	90
1664.56	93
1664.91	94
1665.27	94
1665.62	85
1665.98	94
1666.33	93
1666.69	95
1667.04	98
1667.39	97
1667.75	97
1668.1	96
1668.46	96
1668.81	98
1669.17	97
1669.52	97
1669.88	97
1670.23	99
1670.58	96
1670.94	98
1671.29	99
1671.65	95
1672	97
1672.36	96
1672.71	98
1673.06	100
1673.42	100
1673.77	99
1674.13	96
1674.48	98
1674.83	97
1675.19	97
1675.54	97
1675.9	96
1676.25	94
1676.6	96
1676.96	94
1677.31	95
1677.67	93
1678.02	94
1678.37	93
1678.73	91
1679.08	94
1679.43	94
1679.79	92
1680.14	92
1680.5	92
1680.85	91
1681.2	87
1681.56	90
1681.91	89
1682.26	88
1682.62	90
1682.97	88
1683.32	89
1683.68	89
1684.03	91
1684.38	87
1684.74	88
1685.09	89
1685.44	89
1685.8	88
1686.15	88
1686.5	88
1686.86	88
1687.21	89
1687.56	89
1687.92	86
1688.27	89
1688.62	87
1688.98	89
1689.33	90
1689.68	90
1690.03	89
1690.39	88
1690.74	89
1691.09	92
1691.45	88
1691.8	92
1692.15	89
1692.5	91
1692.86	92
1693.21	92
1693.56	93
1693.92	93
1694.27	93
1694.62	94
1694.97	92
1695.33	96
1695.68	94
1696.03	93
1696.38	97
1696.74	97
1697.09	98
1697.44	98
1697.79	97
1698.15	98
1698.5	98
1698.85	101
1699.2	101
1699.56	100
1699.91	99
1700.26	102
1700.61	103
1700.97	106
1701.32	106
1701.67	108
1702.02	106
1702.37	110
1702.73	110
1703.08	111
1703.43	115
1703.78	112
1704.13	114
1704.49	118
1704.84	118
1705.19	121
1705.54	121
1705.89	123
1706.25	124
1706.6	125
1706.95	126
1707.3	127
1707.65	128
1708.01	130
1708.36	131
1708.71	136
1709.06	135
1709.41	138
1709.76	139
1710.12	140
1710.47	145
1710.82	143
1711.17	147
1711.52	149
1711.87	147
1712.23	155
1712.58	151
1712.93	154
1713.28	157
1713.63	154
1713.98	159
1714.33	158
1714.69	160
1715.04	164
1715.39	164
1715.74	165
1716.09	169
1716.44	168
1716.79	171
1717.14	170
1717.5	173
1717.85	176
1718.2	175
1718.55	183
1718.9	181
1719.25	183
1719.6	188
1719.95	183
1720.3	189
1720.65	188
1721.01	190
1721.36	196
1721.71	191
1722.06	196
1722.41	194
1722.76	193
1723.11	197
1723.46	194
1723.81	202
1724.16	199
1724.51	198
1724.86	208
1725.21	200
1725.56	202
1725.92	209
1726.27	202
1726.62	209
1726.97	205
1727.32	206
1727.67	213
1728.02	202
1728.37	207
1728.72	214
1729.07	208
1729.42	209
1729.77	214
1730.12	217
1730.47	213
1730.82	206
1731.17	217
1731.52	211
1731.87	212
1732.22	221
1732.57	214
1732.92	215
1733.27	211
1733.62	213
1733.97	218
1734.32	212
1734.67	207
1735.02	208
1735.37	204
1735.72	205
1736.07	211
1736.42	214
1736.77	211
1737.12	210
1737.47	216
1737.82	211
1738.17	212
1738.52	209
1738.87	208
1739.22	210
1739.57	214
1739.92	223
1740.27	221
1740.62	208
1740.97	209
1741.32	205
1741.67	198
1742.02	204
1742.37	201
1742.72	199
1743.06	196
1743.41	206
1743.76	211
1744.11	201
1744.46	198
1744.81	199
1745.16	204
1745.51	188
1745.86	189
1746.21	196
1746.56	189
1746.91	190
1747.26	195
1747.6	208
1747.95	208
1748.3	188
1748.65	197
1749	201
1749.35	182
1749.7	183
1750.05	184
1750.4	188
1750.75	194
1751.09	191
1751.44	202
1751.79	211
1752.14	193
1752.49	199
1752.84	200
1753.19	183
1753.54	186
1753.88	180
1754.23	188
1754.58	207
1754.93	192
1755.28	205
1755.63	217
1755.98	198
1756.32	207
1756.67	206
1757.02	190
1757.37	194
1757.72	178
1758.07	192
1758.42	218
1758.76	211
1759.11	233
1759.46	244
1759.81	225
1760.16	242
1760.5	227
1760.85	229
1761.2	245
1761.55	207
1761.9	219
1762.25	262
1762.59	249
1762.94	257
1763.29	287
1763.64	278
1763.99	272
1764.33	269
1764.68	279
1765.03	286
1765.38	265
1765.73	265
1766.07	308
1766.42	339
1766.77	345
1767.12	366
1767.46	399
1767.81	353
1768.16	376
1768.51	367
1768.85	354
1769.2	371
1769.55	355
1769.9	373
1770.25	441
1770.59	452
1770.94	467
1771.29	428
1771.64	436
1771.98	462
1772.33	456
1772.68	453
1773.02	502
1773.37	508
1773.72	501
1774.07	581
1774.41	615
1774.76	646
1775.11	627
1775.46	557
1775.8	581
1776.15	524
1776.5	579
1776.84	715
1777.19	630
1777.54	656
1777.89	748
1778.23	736
1778.58	803
1778.93	743
1779.27	726
1779.62	847
1779.97	736
1780.31	731
1780.66	749
1781.01	710
1781.35	825
1781.7	877
1782.05	916
1782.39	975
1782.74	858
1783.09	836
1783.43	1037
1783.78	967
1784.13	1007
1784.47	953
1784.82	907
1785.17	876
1785.51	814
1785.86	880
1786.21	1242
1786.55	1200
1786.9	1169
1787.25	1252
1787.59	1318
1787.94	1138
1788.29	1128
1788.63	959
1788.98	1090
1789.32	1322
1789.67	1135
1790.02	1009
1790.36	927
1790.71	1302
1791.06	1818
1791.4	1610
1791.75	1504
1792.09	1682
1792.44	1844
1792.79	1756
1793.13	1922
1793.48	1685
1793.82	1720
1794.17	1686
1794.52	1552
1794.86	1616
1795.21	1450
1795.55	1337
1795.9	1194
1796.24	986
1796.59	1522
1796.94	2786
1797.28	2744
1797.63	2057
1797.97	1955
1798.32	1745
1798.66	1697
1799.01	1828
1799.36	2016
1799.7	2008
1800.05	1745
1800.39	1725
1800.74	2057
1801.08	1558
1801.43	2478
1801.77	3530
1802.12	2543
1802.46	1923
1802.81	1856
1803.15	2164
1803.5	2126
1803.85	2124
1804.19	1658
1804.54	1611
1804.88	1216
1805.23	1917
1805.57	2652
1805.92	1601
1806.26	1884
1806.61	3718
1806.95	2854
1807.3	1944
1807.64	1832
1807.99	2999
1808.33	3779
1808.68	2775
1809.02	2135
1809.37	1828
1809.71	2041
1810.06	4149
1810.4	3692
1810.75	2819
1811.09	2083
1811.43	1801
1811.78	2418
1812.12	4906
1812.47	4312
1812.81	3960
1813.16	3378
1813.5	3334
1813.85	2877
1814.19	2995
1814.54	3027
1814.88	2533
1815.23	2619
1815.57	2173
1815.91	1789
1816.26	1521
1816.6	1150
1816.95	1587
1817.29	4268
1817.64	4185
1817.98	2420
1818.32	3285
1818.67	3835
1819.01	4104
1819.36	3908
1819.7	3259
1820.05	2768
1820.39	2706
1820.73	2821
1821.08	2896
1821.42	2867
1821.77	2689
1822.11	2350
1822.45	2121
1822.8	1701
1823.14	2503
1823.49	2479
1823.83	1633
1824.17	4295
1824.52	4927
1824.86	3428
1825.2	3040
1825.55	2774
1825.89	2443
1826.24	1880
1826.58	1749
1826.92	3574
1827.27	3809
1827.61	3195
1827.95	2691
1828.3	2554
1828.64	2375
1828.98	2102
1829.33	1596
1829.67	1355
1830.02	3169
1830.36	4148
1830.7	3204
1831.05	3185
1831.39	3403
1831.73	3227
1832.08	2715
1832.42	2496
1832.76	2351
1833.1	2276
1833.45	1989
1833.79	2276
1834.13	1738
1834.48	1709
1834.82	2376
1835.16	2162
1835.51	1967
1835.85	1900
1836.19	1941
1836.54	1529
1836.88	1491
1837.22	1255
1837.56	991
1837.91	1145
1838.25	1822
1838.59	2161
1838.94	2785
1839.28	2470
1839.62	1550
1839.96	1426
1840.31	2063
1840.65	1532
1840.99	1141
1841.34	1339
1841.68	3078
1842.02	3395
1842.36	2761
1842.71	1971
1843.05	1518
1843.39	1165
1843.73	2416
1844.08	3671
1844.42	2801
1844.76	2853
1845.1	2594
1845.45	2213
1845.79	1514
1846.13	1991
1846.47	2450
1846.81	1691
1847.16	1405
1847.5	1354
1847.84	2519
1848.18	2763
1848.53	2084
1848.87	1718
1849.21	1748
1849.55	1619
1849.89	1382
1850.24	1393
1850.58	1408
1850.92	1266
1851.26	1318
1851.6	1453
1851.95	1268
1852.29	1382
1852.63	1131
1852.97	1071
1853.31	1106
1853.66	943
1854	867
1854.34	1491
1854.68	1839
1855.02	1365
1855.36	1155
1855.71	1022
1856.05	1062
1856.39	1079
1856.73	920
1857.07	1036
1857.41	1078
1857.76	904
1858.1	911
1858.44	825
1858.78	865
1859.12	888
1859.46	853
1859.8	922
1860.15	848
1860.49	857
1860.83	1020
1861.17	1716
1861.51	1280
1861.85	946
1862.19	871
1862.53	881
1862.88	1018
1863.22	1095
1863.56	946
1863.9	933
1864.24	945
1864.58	1069
1864.92	1075
1865.26	945
1865.6	953
1865.94	964
1866.29	865
1866.63	928
1866.97	1003
1867.31	902
1867.65	987
1867.99	1064
1868.33	1173
1868.67	1175
1869.01	1018
1869.35	1138
1869.69	1273
1870.03	1648
1870.37	1721
1870.72	1169
1871.06	1390
1871.4	1115
1871.74	1054
1872.08	1108
1872.42	1145
1872.76	1318
1873.1	1580
1873.44	1720
1873.78	1209
1874.12	1112
1874.46	1193
1874.8	1337
1875.14	1450
1875.48	1916
1875.82	1591
1876.16	1241
1876.5	1291
1876.84	1643
1877.18	1376
1877.52	1176
1877.86	1268
1878.2	1245
1878.54	1332
1878.88	1395
1879.22	1369
1879.56	1387
1879.9	1515
1880.24	1486
1880.58	1555
1880.92	1608
1881.26	1581
1881.6	1688
1881.94	1544
1882.28	1557
1882.62	1602
1882.96	1766
1883.3	1878
1883.64	1900
1883.98	1584
1884.32	1480
1884.66	1513
1885	1585
1885.34	1702
1885.68	1655
1886.02	1802
1886.36	1762
1886.7	1709
1887.04	1653
1887.38	1784
1887.72	1762
1888.06	1799
1888.39	1921
1888.73	1936
1889.07	1965
1889.41	2094
1889.75	2273
1890.09	1865
1890.43	2077
1890.77	1981
1891.11	1570
1891.45	1652
1891.79	1771
1892.13	1794
1892.47	1853
1892.8	1965
1893.14	1915
1893.48	1994
1893.82	2059
1894.16	2089
1894.5	1835
1894.84	1915
1895.18	1947
1895.52	2002
1895.86	2010
1896.19	2127
1896.53	2042
1896.87	2106
1897.21	2121
1897.55	2067
1897.89	2032
1898.23	2178
1898.57	2216
1898.9	2077
1899.24	1975
1899.58	2060
1899.92	2108
1900.26	2122
1900.6	2145
1900.94	2069
1901.27	2128
1901.61	2142
1901.95	2174
1902.29	2121
1902.63	2205
1902.97	2201
1903.3	2148
1903.64	2274
1903.98	2237
1904.32	2136
1904.66	2124
1905	2221
1905.33	2163
1905.67	2190
1906.01	2212
1906.35	2220
1906.69	2151
1907.02	2104
1907.36	2090
1907.7	2145
1908.04	2133
1908.38	2210
1908.71	2112
1909.05	2149
1909.39	2165
1909.73	2159
1910.07	2075
1910.4	2076
1910.74	2125
1911.08	2133
1911.42	2085
1911.76	2115
1912.09	2118
1912.43	2057
1912.77	2073
1913.11	2128
1913.44	2036
1913.78	2031
1914.12	2063
1914.46	2071
1914.79	1985
1915.13	2063
1915.47	2020
1915.81	1948
1916.14	1955
1916.48	2049
1916.82	1946
1917.16	1942
1917.49	1978
1917.83	1979
1918.17	1878
1918.5	1932
1918.84	1898
1919.18	1844
1919.52	1861
1919.85	1899
1920.19	1835
1920.53	1819
1920.87	1854
1921.2	1828
1921.54	1785
1921.88	1839
1922.21	1833
1922.55	1780
1922.89	1793
1923.22	1807
1923.56	1771
1923.9	1754
1924.23	1793
1924.57	1755
1924.91	1713
1925.25	1747
1925.58	1791
1925.92	1737
1926.26	1753
1926.59	1747
1926.93	1715
1927.27	1652
1927.6	1748
1927.94	1711
1928.28	1655
1928.61	1668
1928.95	1688
1929.29	1642
1929.62	1701
1929.96	1695
1930.29	1634
1930.63	1638
1930.97	1682
1931.3	1657
1931.64	1634
1931.98	1656
1932.31	1614
1932.65	1568
1932.99	1632
1933.32	1677
1933.66	1634
1933.99	1636
1934.33	1655
1934.67	1627
1935	1646
1935.34	1695
1935.67	1620
1936.01	1579
1936.35	1632
1936.68	1585
1937.02	1589
1937.35	1640
1937.69	1623
1938.03	1560
1938.36	1631
1938.7	1597
1939.03	1583
1939.37	1665
1939.7	1643
1940.04	1575
1940.38	1627
1940.71	1660
1941.05	1599
1941.38	1696
1941.72	1644
1942.05	1635
1942.39	1624
1942.73	1728
1943.06	1663
1943.4	1688
1943.73	1717
1944.07	1675
1944.4	1672
1944.74	1736
1945.07	1734
1945.41	1652
1945.74	1749
1946.08	1713
1946.42	1720
1946.75	1746
1947.09	1792
1947.42	1710
1947.76	1779
1948.09	1810
1948.43	1799
1948.76	1789
1949.1	1865
1949.43	1807
1949.77	1778
1950.1	1838
1950.44	1863
1950.77	1802
1951.11	1833
1951.44	1881
1951.78	1851
1952.11	1811
1952.45	1914
1952.78	1893
1953.12	1874
1953.45	1876
1953.79	1961
1954.12	1881
1954.46	1903
1954.79	1954
1955.12	1950
1955.46	1897
1955.79	1962
1956.13	1972
1956.46	1914
1956.8	1961
1957.13	1991
1957.47	1937
1957.8	1939
1958.14	2023
1958.47	1963
1958.8	1956
1959.14	1991
1959.47	2031
1959.81	1950
1960.14	1954
1960.48	2021
1960.81	1998
1961.14	1974
1961.48	1988
1961.81	2052
1962.15	1961
1962.48	1980
1962.82	2001
1963.15	2038
1963.48	1937
1963.82	1991
1964.15	1982
1964.49	1998
1964.82	1939
1965.15	2026
1965.49	1976
1965.82	1925
1966.16	1951
1966.49	2022
1966.82	1945
1967.16	1919
1967.49	1952
1967.83	1946
1968.16	1850
1968.49	1950
1968.83	1936
1969.16	1894
1969.49	1824
1969.83	1876
1970.16	1935
1970.49	1842
1970.83	1878
1971.16	1853
1971.5	1840
1971.83	1801
1972.16	1865
1972.5	1855
1972.83	1821
1973.16	1750
1973.5	1819
1973.83	1826
1974.16	1800
1974.5	1775
1974.83	1806
1975.16	1773
1975.5	1697
1975.83	1762
1976.16	1733
1976.49	1725
1976.83	1637
1977.16	1725
1977.49	1695
1977.83	1657
1978.16	1634
1978.49	1678
1978.83	1628
1979.16	1585
1979.49	1573
1979.83	1623
1980.16	1589
1980.49	1488
1980.82	1513
1981.16	1510
1981.49	1480
1981.82	1490
1982.15	1499
1982.49	1418
1982.82	1393
1983.15	1402
1983.49	1453
1983.82	1366
1984.15	1388
1984.48	1359
1984.82	1318
1985.15	1292
1985.48	1331
1985.81	1331
1986.15	1294
1986.48	1230
1986.81	1276
1987.14	1220
1987.48	1185
1987.81	1167
1988.14	1178
1988.47	1134
1988.81	1124
1989.14	1158
1989.47	1114
1989.8	1078
1990.13	1083
1990.47	1099
1990.8	1044
1991.13	1024
1991.46	1022
1991.79	1019
1992.13	938
1992.46	935
1992.79	961
1993.12	954
1993.45	911
1993.79	940
1994.12	891
1994.45	871
1994.78	878
1995.11	916
1995.45	853
1995.78	844
1996.11	843
1996.44	858
1996.77	824
1997.1	825
1997.44	824
1997.77	799
1998.1	778
1998.43	802
1998.76	800
1999.09	782
1999.43	774
1999.76	772
2000.09	747
2000.42	742
2000.75	768
2001.08	748
2001.41	736
2001.75	732
2002.08	750
2002.41	734
2002.74	735
2003.07	738
2003.4	737
2003.73	719
2004.06	733
2004.4	730
2004.73	717
2005.06	723
2005.39	723
2005.72	712
2006.05	712
2006.38	731
2006.71	719
2007.04	715
2007.37	718
2007.71	731
2008.04	712
2008.37	732
2008.7	742
2009.03	737
2009.36	729
2009.69	754
2010.02	757
2010.35	748
2010.68	745
2011.01	765
2011.34	752
2011.67	760
2012.01	771
2012.34	775
2012.67	755
2013	771
2013.33	780
2013.66	766
2013.99	776
2014.32	789
2014.65	783
2014.98	776
2015.31	797
2015.64	807
2015.97	799
2016.3	790
2016.63	814
2016.96	808
2017.29	810
2017.62	808
2017.95	820
2018.28	807
2018.61	811
2018.94	818
2019.27	831
2019.6	819
2019.93	817
2020.26	831
2020.59	821
2020.92	818
2021.25	821
2021.58	832
2021.91	823
2022.24	826
2022.57	832
2022.9	835
2023.23	835
2023.56	845
2023.89	836
2024.22	835
2024.55	823
2024.88	849
2025.21	836
2025.54	827
2025.87	821
2026.2	830
2026.53	835
2026.86	821
2027.19	816
2027.52	813
2027.85	797
2028.18	796
2028.51	795
2028.84	810
2029.16	797
2029.49	797
2029.82	795
2030.15	810
2030.48	794
2030.81	791
2031.14	777
2031.47	793
2031.8	767
2032.13	772
2032.46	786
2032.79	781
2033.12	760
2033.44	755
2033.77	765
2034.1	750
2034.43	757
2034.76	747
2035.09	746
2035.42	729
2035.75	731
2036.08	730
2036.41	731
2036.73	722
2037.06	703
2037.39	712
2037.72	713
2038.05	704
2038.38	698
2038.71	693
2039.04	688
2039.36	674
2039.69	673
2040.02	675
2040.35	669
2040.68	657
2041.01	650
2041.34	655
2041.66	648
2041.99	643
2042.32	627
2042.65	632
2042.98	624
2043.31	623
2043.63	620
2043.96	618
2044.29	614
2044.62	602
2044.95	600
2045.28	602
2045.6	600
2045.93	588
2046.26	583
2046.59	585
2046.92	582
2047.24	577
2047.57	572
2047.9	573
2048.23	570
2048.56	564
2048.88	564
2049.21	565
2049.54	561
2049.87	555
2050.2	554
2050.52	554
2050.85	554
2051.18	552
2051.51	548
2051.83	545
2052.16	539
2052.49	536
2052.82	537
2053.15	539
2053.47	530
2053.8	528
2054.13	525
2054.46	531
2054.78	525
2055.11	525
2055.44	518
2055.77	518
2056.09	517
2056.42	523
2056.75	520
2057.08	512
2057.4	516
2057.73	508
2058.06	516
2058.38	511
2058.71	508
2059.04	501
2059.37	502
2059.69	494
2060.02	496
2060.35	498
2060.67	500
2061	501
2061.33	494
2061.66	491
2061.98	499
2062.31	496
2062.64	495
2062.96	494
2063.29	498
2063.62	492
2063.94	492
2064.27	488
2064.6	482
2064.92	482
2065.25	471
2065.58	480
2065.91	481
2066.23	478
2066.56	475
2066.89	474
2067.21	462
2067.54	473
2067.87	472
2068.19	462
2068.52	450
2068.84	445
2069.17	461
2069.5	460
2069.82	457
2070.15	451
2070.48	441
2070.8	447
2071.13	439
2071.46	440
2071.78	434
2072.11	427
2072.43	424
2072.76	425
2073.09	429
2073.41	421
2073.74	422
2074.07	417
2074.39	410
2074.72	410
2075.04	412
2075.37	409
2075.7	404
2076.02	390
2076.35	383
2076.67	388
2077	387
2077.33	384
2077.65	375
2077.98	362
2078.3	368
2078.63	366
2078.95	372
2079.28	363
2079.61	357
2079.93	358
2080.26	352
2080.58	361
2080.91	357
2081.23	352
2081.56	344
2081.89	343
2082.21	347
2082.54	340
2082.86	337
2083.19	337
2083.51	327
2083.84	326
2084.16	323
2084.49	325
2084.81	321
2085.14	318
2085.46	317
2085.79	318
2086.12	318
2086.44	317
2086.77	314
2087.09	315
2087.42	312
2087.74	311
2088.07	309
2088.39	309
2088.72	312
2089.04	307
2089.37	308
2089.69	309
2090.02	310
2090.34	308
2090.67	307
2090.99	305
2091.32	306
2091.64	298
2091.97	306
2092.29	308
2092.62	308
2092.94	306
2093.26	307
2093.59	307
2093.91	307
2094.24	307
2094.56	299
2094.89	308
2095.21	305
2095.54	308
2095.86	307
2096.19	305
2096.51	305
2096.84	305
2097.16	305
2097.48	305
2097.81	306
2098.13	305
2098.46	304
2098.78	309
2099.11	304
2099.43	308
2099.75	305
2100.08	304
2100.4	307
2100.73	310
2101.05	311
2101.38	309
2101.7	309
2102.02	307
2102.35	308
2102.67	307
2103	309
2103.32	308
2103.64	305
2103.97	306
2104.29	308
2104.62	311
2104.94	310
2105.26	310
2105.59	308
2105.91	305
2106.23	309
2106.56	308
2106.88	309
2107.21	300
2107.53	293
2107.85	298
2108.18	299
2108.5	302
2108.82	297
2109.15	288
2109.47	288
2109.79	296
2110.12	301
2110.44	295
2110.76	286
2111.09	285
2111.41	283
2111.73	287
2112.06	287
2112.38	289
2112.7	278
2113.03	281
2113.35	273
2113.67	283
2114	276
2114.32	280
2114.64	273
2114.97	266
2115.29	271
2115.61	271
2115.94	262
2116.26	262
2116.58	258
2116.91	256
2117.23	257
2117.55	244
2117.87	254
2118.2	254
2118.52	249
2118.84	249
2119.17	245
2119.49	250
2119.81	241
2120.13	239
2120.46	239
2120.78	239
2121.1	238
2121.42	231
2121.75	236
2122.07	233
2122.39	228
2122.72	230
2123.04	229
2123.36	230
2123.68	226
2124.01	223
2124.33	223
2124.65	225
2124.97	224
2125.29	218
2125.62	219
2125.94	218
2126.26	217
2126.58	216
2126.91	217
2127.23	215
2127.55	206
2127.87	214
2128.2	214
2128.52	212
2128.84	216
2129.16	212
2129.48	212
2129.81	211
2130.13	212
2130.45	212
2130.77	210
2131.09	211
2131.42	209
2131.74	212
2132.06	211
2132.38	209
2132.7	210
2133.02	208
2133.35	210
2133.67	208
2133.99	210
2134.31	207
2134.63	209
2134.96	204
2135.28	209
2135.6	207
2135.92	205
2136.24	207
2136.56	207
2136.88	209
2137.21	207
2137.53	206
2137.85	206
2138.17	206
2138.49	205
2138.81	202
2139.13	205
2139.46	205
2139.78	206
2140.1	203
2140.42	202
2140.74	203
2141.06	203
2141.38	204
2141.7	203
2142.03	201
2142.35	201
2142.67	199
2142.99	198
2143.31	198
2143.63	194
2143.95	196
2144.27	196
2144.59	196
2144.91	196
2145.24	193
2145.56	191
2145.88	190
2146.2	188
2146.52	189
2146.84	188
2147.16	185
2147.48	185
2147.8	184
2148.12	184
2148.44	184
2148.76	184
2149.08	181
2149.41	182
2149.73	180
2150.05	178
2150.37	178
2150.69	176
2151.01	174
2151.33	172
2151.65	174
2151.97	172
2152.29	172
2152.61	171
2152.93	169
2153.25	166
2153.57	168
2153.89	168
2154.21	168
2154.53	166
2154.85	165
2155.17	163
2155.49	166
2155.81	163
2156.13	162
2156.45	162
2156.77	160
2157.09	160
2157.41	162
2157.73	160
2158.05	160
2158.37	160
2158.69	157
2159.01	160
2159.33	158
2159.65	158
2159.97	157
2160.29	156
2160.61	154
2160.93	155
2161.25	155
2161.57	153
2161.89	153
2162.21	152
2162.53	152
2162.85	153
2163.17	152
2163.49	148
2163.81	151
2164.13	150
2164.45	148
2164.77	149
2165.08	144
2165.4	149
2165.72	147
2166.04	147
2166.36	147
2166.68	146
2167	147
2167.32	144
2167.64	144
2167.96	143
2168.28	144
2168.6	142
2168.92	141
2169.24	142
2169.55	142
2169.87	141
2170.19	141
2170.51	141
2170.83	142
2171.15	140
2171.47	139
2171.79	139
2172.11	138
2172.43	139
2172.74	139
2173.06	136
2173.38	136
2173.7	138
2174.02	137
2174.34	137
2174.66	135
2174.98	135
2175.29	134
2175.61	134
2175.93	133
2176.25	133
2176.57	132
2176.89	133
2177.21	132
2177.52	131
2177.84	130
2178.16	132
2178.48	132
2178.8	131
2179.12	131
2179.43	130
2179.75	130
2180.07	129
2180.39	123
2180.71	126
2181.03	128
2181.34	128
2181.66	126
2181.98	126
2182.3	125
2182.62	126
2182.93	126
2183.25	124
2183.57	121
2183.89	124
2184.21	123
2184.52	121
2184.84	123
2185.16	124
2185.48	124
2185.8	121
2186.11	121
2186.43	122
2186.75	121
2187.07	119
2187.39	121
2187.7	118
2188.02	116
2188.34	118
2188.66	116
2188.97	117
2189.29	118
2189.61	117
2189.93	116
2190.24	117
2190.56	116
2190.88	119
2191.2	116
2191.51	117
2191.83	116
2192.15	114
2192.47	114
2192.78	116
2193.1	113
2193.42	112
2193.74	113
2194.05	112
2194.37	112
2194.69	112
2195	111
2195.32	111
2195.64	110
2195.96	111
2196.27	112
2196.59	110
2196.91	110
2197.22	106
2197.54	109
2197.86	108
2198.18	108
2198.49	108
2198.81	106
2199.13	106
2199.44	106
2199.76	107
2200.08	106
2200.39	106
2200.71	102
2201.03	105
2201.34	105
2201.66	104
2201.98	104
2202.29	101
2202.61	102
2202.93	103
2203.24	103
2203.56	103
2203.88	102
2204.19	102
2204.51	101
2204.83	102
2205.14	102
2205.46	101
2205.78	100
2206.09	100
2206.41	101
2206.72	101
2207.04	97
2207.36	99
2207.67	99
2207.99	96
2208.31	100
2208.62	98
2208.94	98
2209.25	97
2209.57	96
2209.89	97
2210.2	97
2210.52	96
2210.83	97
2211.15	96
2211.47	96
2211.78	96
2212.1	95
2212.41	95
2212.73	93
2213.05	93
2213.36	95
2213.68	94
2213.99	92
2214.31	94
2214.62	92
2214.94	94
2215.26	94
2215.57	93
2215.89	92
2216.2	92
2216.52	94
2216.83	92
2217.15	93
2217.46	93
2217.78	93
2218.1	93
2218.41	92
2218.73	91
2219.04	92
2219.36	92
2219.67	91
2219.99	91
2220.3	91
2220.62	91
2220.93	90
2221.25	90
2221.56	91
2221.88	89
2222.19	89
2222.51	88
2222.82	89
2223.14	88
2223.45	82
2223.77	88
2224.08	89
2224.4	88
2224.71	89
2225.03	88
2225.34	87
2225.66	87
2225.97	87
2226.29	79
2226.6	86
2226.92	86
2227.23	85
2227.55	85
2227.86	88
2228.18	84
2228.49	86
2228.81	85
2229.12	85
2229.44	85
2229.75	86
2230.07	84
2230.38	86
2230.69	85
2231.01	84
2231.32	83
2231.64	84
2231.95	83
2232.27	83
2232.58	83
2232.9	82
2233.21	82
2233.52	82
2233.84	82
2234.15	84
2234.47	82
2234.78	82
2235.1	82
2235.41	81
2235.72	81
2236.04	80
2236.35	81
2236.67	81
2236.98	80
2237.29	77
2237.61	80
2237.92	80
2238.24	80
2238.55	80
2238.86	78
2239.18	79
2239.49	79
2239.8	81
2240.12	75
2240.43	80
2240.75	78
2241.06	79
2241.37	80
2241.69	77
2242	78
2242.31	80
2242.63	77
2242.94	79
2243.26	78
2243.57	77
2243.88	75
2244.2	78
2244.51	76
2244.82	77
2245.14	79
2245.45	77
2245.76	78
2246.08	78
2246.39	78
2246.7	78
2247.02	75
2247.33	78
2247.64	76
2247.96	78
2248.27	78
2248.58	76
2248.9	76
2249.21	71
2249.52	76
2249.83	75
2250.15	76
2250.46	76
2250.77	75
2251.09	75
2251.4	74
2251.71	75
2252.03	76
2252.34	75
2252.65	75
2252.96	74
2253.28	73
2253.59	76
2253.9	75
2254.21	73
2254.53	73
2254.84	74
2255.15	74
2255.47	72
2255.78	72
2256.09	74
2256.4	73
2256.72	73
2257.03	73
2257.34	73
2257.65	73
2257.97	73
2258.28	71
2258.59	72
2258.9	72
2259.22	72
2259.53	72
2259.84	72
2260.15	71
2260.46	72
2260.78	71
2261.09	72
2261.4	72
2261.71	72
2262.03	71
2262.34	72
2262.65	71
2262.96	70
2263.27	70
2263.59	70
2263.9	71
2264.21	69
2264.52	71
2264.83	68
2265.15	68
2265.46	67
2265.77	68
2266.08	70
2266.39	71
2266.7	69
2267.02	68
2267.33	70
2267.64	69
2267.95	66
2268.26	68
2268.57	68
2268.89	68
2269.2	68
2269.51	67
2269.82	68
2270.13	69
2270.44	67
2270.76	67
2271.07	70
2271.38	67
2271.69	68
2272	64
2272.31	67
2272.62	67
2272.93	69
2273.25	64
2273.56	67
2273.87	67
2274.18	68
2274.49	68
2274.8	67
2275.11	69
2275.42	66
2275.74	68
2276.05	67
2276.36	66
2276.67	67
2276.98	67
2277.29	65
2277.6	66
2277.91	64
2278.22	66
2278.53	66
2278.85	63
2279.16	65
2279.47	65
2279.78	60
2280.09	65
2280.4	64
2280.71	64
2281.02	64
2281.33	65
2281.64	64
2281.95	64
2282.26	64
2282.57	64
2282.88	65
2283.19	64
2283.5	64
2283.82	65
2284.13	62
2284.44	64
2284.75	62
2285.06	63
2285.37	59
2285.68	63
2285.99	63
2286.3	63
2286.61	63
2286.92	62
2287.23	63
2287.54	62
2287.85	64
2288.16	63
2288.47	63
2288.78	63
2289.09	62
2289.4	63
2289.71	62
2290.02	61
2290.33	64
2290.64	62
2290.95	63
2291.26	63
2291.57	61
2291.88	63
2292.19	61
2292.5	61
2292.81	63
2293.12	0
2293.43	0
2293.74	0
2294.05	0
2294.36	0
2294.67	0
2294.98	0
2295.29	0
2295.6	0
2295.91	0
2296.21	0
2296.52	0
2296.83	0
2297.14	0
2297.45	0
2297.76	0
2298.07	0
2298.38	0
2298.69	0
2299	0
2299.31	0
2299.62	0
2299.93	0
2300.24	0
2300.55	0
2300.85	0
2301.16	0
2301.47	0
2301.78	0
2302.09	0
2302.4	0
2302.71	0
2303.02	0
2303.33	0
2303.64	0
2303.94	0
2304.25	0
2304.56	0
2304.87	0
2305.18	0
2305.49	0
2305.8	0
2306.11	0
2306.42	0
2306.72	0
2307.03	0
2307.34	0
2307.65	0
2307.96	0
2308.27	0
2308.58	0
2308.88	0
2309.19	0
2309.5	0
2309.81	0
2310.12	0
2310.43	0
2310.74	0
2311.04	0
2311.35	0
2311.66	0
2311.97	0
2312.28	0
2312.59	0
2312.89	0
2313.2	0
2313.51	0
2313.82	0
2314.13	0
2314.43	0
2314.74	0
2315.05	0
2315.36	0
2315.67	0
2315.97	0
2316.28	0
2316.59	0
2316.9	0
2317.21	0
2317.51	0
2317.82	0
2318.13	0
2318.44	0
2318.75	0
2319.05	0
2319.36	0
2319.67	0
2319.98	0
2320.28	0
2320.59	0
2320.9	0
2321.21	0
2321.51	0
2321.82	0
2322.13	0
2322.44	0
2322.74	0
2323.05	0
2323.36	0
2323.67	0
2323.97	0
2324.28	0
2324.59	0
2324.9	0
2325.2	0
2325.51	0
2325.82	0
2326.13	0
2326.43	0
2326.74	0
2327.05	0
2327.35	0
2327.66	0
2327.97	0
2328.27	0
2328.58	0
2328.89	0
2329.2	0
2329.5	0
2329.81	0
2330.12	0
2330.42	0
2330.73	0
2331.04	0
2331.34	0
2331.65	0
2331.96	0
2332.26	0
2332.57	0
2332.88	0
2333.18	0
2333.49	0
2333.8	0
2334.1	0
2334.41	0
2334.72	0
2335.02	0
2335.33	0
2335.64	0
2335.94	0
2336.25	0
2336.56	0
2336.86	0
2337.17	0
2337.48	0
2337.78	0
2338.09	0
2338.39	0
2338.7	0
2339.01	0
2339.31	0
2339.62	0
2339.93	0
2340.23	0
2340.54	0
2340.84	0
2341.15	0
2341.46	0
2341.76	0
2342.07	0
2342.37	0
2342.68	0
2342.99	0
2343.29	0
2343.6	0
2343.9	0
2344.21	0
2344.51	0
2344.82	0
2345.13	0
2345.43	0
2345.74	0
2346.04	0
2346.35	0
2346.65	0
2346.96	0
2347.27	0
2347.57	0
2347.88	0
2348.18	0
2348.49	0
2348.79	0
2349.1	0
2349.4	0
2349.71	0
2350.01	0
2350.32	0
2350.63	0
2350.93	0
2351.24	0
2351.54	0
2351.85	0
2352.15	0
2352.46	0
2352.76	0
2353.07	0
2353.37	0
2353.68	0
2353.98	0
2354.29	0
2354.59	0
2354.9	0
2355.2	0
2355.51	0
2355.81	0
2356.12	0
2356.42	0
2356.73	0
2357.03	0
2357.34	0
2357.64	0
2357.95	0
2358.25	0
2358.55	0
2358.86	0
2359.16	0
2359.47	0
2359.77	0
2360.08	0
2360.38	0
2360.69	0
2360.99	0
2361.3	0
2361.6	0
2361.9	0
2362.21	0
2362.51	0
2362.82	0
2363.12	0
2363.43	0
2363.73	0
2364.04	0
2364.34	0
2364.64	0
2364.95	0
2365.25	0
2365.56	0
2365.86	0
2366.16	0
2366.47	0
2366.77	0
2367.08	0
2367.38	0
2367.68	0
2367.99	0
2368.29	0
2368.6	0
2368.9	0
2369.2	0
2369.51	0
2369.81	0
2370.12	0
2370.42	0
2370.72	0
2371.03	0
2371.33	0
2371.63	0
2371.94	0
2372.24	0
2372.55	0
2372.85	0
2373.15	0
2373.46	0
2373.76	0
2374.06	0
2374.37	0
2374.67	0
2374.97	0
2375.28	0
2375.58	0
2375.88	0
2376.19	0
2376.49	0
2376.79	0
2377.1	0
2377.4	0
2377.7	0
2378.01	0
2378.31	0
2378.61	0
2378.92	0
2379.22	0
2379.52	0
2379.82	0
2380.13	0
2380.43	0
2380.73	0
2381.04	0
2381.34	0
2381.64	0
2381.95	0
2382.25	0
2382.55	0
2382.85	0
2383.16	0
2383.46	0
2383.76	0
2384.06	0
2384.37	0
2384.67	0
2384.97	0
2385.28	0
2385.58	0
2385.88	0
2386.18	0
2386.49	0
2386.79	0
2387.09	0
2387.39	0
2387.69	0
2388	0
2388.3	0
2388.6	0
2388.9	0
2389.21	0
2389.51	0
2389.81	0
2390.11	0
2390.42	0
2390.72	0
2391.02	0
2391.32	0
2391.62	0
2391.93	0
2392.23	0
2392.53	0
2392.83	0
2393.13	0
2393.44	0
2393.74	0
2394.04	0
2394.34	0
2394.64	0
2394.95	0
2395.25	0
2395.55	0
2395.85	0
2396.15	0
2396.45	0
2396.76	0
2397.06	0
2397.36	0
2397.66	0
2397.96	0
2398.26	0
2398.57	0
2398.87	0
2399.17	0
2399.47	0
2399.77	0
2400.07	0
2400.37	0
2400.68	0
2400.98	0
2401.28	0
2401.58	0
2401.88	0
2402.18	0
2402.48	0
2402.79	0
2403.09	0
2403.39	0
2403.69	0
2403.99	0
2404.29	0
2404.59	0
2404.89	0
2405.19	0
2405.5	0
2405.8	0
2406.1	0
2406.4	0
2406.7	0
2407	0
2407.3	0
2407.6	0
2407.9	0
2408.2	0
2408.5	0
2408.8	0
2409.11	0
2409.41	0
2409.71	0
2410.01	0
2410.31	0
2410.61	0
2410.91	0
2411.21	0
2411.51	0
2411.81	0
2412.11	0
2412.41	0
2412.71	0
2413.01	0
2413.31	0
2413.61	0
2413.91	0
2414.21	0
2414.51	0
2414.81	0
2415.12	0
2415.42	0
2415.72	0
2416.02	0
2416.32	0
2416.62	0
2416.92	0
2417.22	0
2417.52	0
2417.82	0
2418.12	0
2418.42	0
2418.72	0
2419.02	0
2419.32	0
2419.62	0
2419.92	0
2420.22	0
2420.52	0
2420.82	0
2421.12	0
2421.42	0
2421.71	0
2422.01	0
2422.31	0
2422.61	0
2422.91	0
2423.21	0
2423.51	0
2423.81	0
2424.11	0
2424.41	0
2424.71	0
2425.01	0
2425.31	0
2425.61	0
2425.91	0
2426.21	0
2426.51	0
2426.81	0
2427.11	0
2427.41	0
2427.7	0
2428	0
2428.3	0
2428.6	0
2428.9	0
2429.2	0
2429.5	0
2429.8	0
2430.1	0
2430.4	0
2430.7	0
2430.99	0
2431.29	0
2431.59	0
2431.89	0
2432.19	0
2432.49	0
2432.79	0
2433.09	0
2433.39	0
2433.68	0
2433.98	0
2434.28	0
2434.58	0
2434.88	0
2435.18	0
2435.48	0
2435.78	0
2436.07	0
2436.37	0
2436.67	0
2436.97	0
2437.27	0
2437.57	0
2437.86	0
2438.16	0
2438.46	0
2438.76	0
2439.06	0
2439.36	0
2439.66	0
2439.95	0
2440.25	0
2440.55	0
2440.85	0
2441.15	0
2441.44	0
2441.74	0
2442.04	0
2442.34	0
2442.64	0
2442.93	0
2443.23	0
2443.53	0
2443.83	0
2444.13	0
2444.42	0
2444.72	0
2445.02	0
2445.32	0
2445.62	0
2445.91	0
2446.21	0
2446.51	0
2446.81	0
2447.1	0
2447.4	0
2447.7	0
2448	0
2448.3	0
2448.59	0
2448.89	0
2449.19	0
2449.49	0
2449.78	0
2450.08	0
2450.38	0
2450.68	0
2450.97	0
2451.27	0
2451.57	0
2451.87	0
2452.16	0
2452.46	0
2452.76	0
2453.05	0
2453.35	0
2453.65	0
2453.95	0
2454.24	0
2454.54	0
2454.84	0
2455.13	0
2455.43	0
2455.73	0
2456.03	0
2456.32	0
2456.62	0
2456.92	0
2457.21	0
2457.51	0
2457.81	0
2458.1	0
2458.4	0
2458.7	0
2458.99	0
2459.29	0
2459.59	0
2459.88	0
2460.18	0
2460.48	0
2460.77	0
2461.07	0
2461.37	0
2461.66	0
2461.96	0
2462.26	0
2462.55	0
2462.85	0
2463.15	0
2463.44	0
2463.74	0
2464.04	0
2464.33	0
2464.63	0
2464.92	0
2465.22	0
2465.52	0
2465.81	0
2466.11	0
2466.41	0
2466.7	0
2467	0
2467.29	0
2467.59	0
2467.89	0
2468.18	0
2468.48	0
2468.77	0
2469.07	0
2469.37	0
2469.66	0
2469.96	0
2470.25	0
2470.55	0
2470.84	0
2471.14	0
2471.44	0
2471.73	0
2472.03	0
2472.32	0
2472.62	0
2472.91	0
2473.21	0
2473.51	0
2473.8	0
2474.1	0
2474.39	0
2474.69	0
2474.98	0
2475.28	0
2475.57	0
2475.87	0
2476.17	0
2476.46	0
2476.76	0
2477.05	0
2477.35	0
2477.64	0
2477.94	0
2478.23	0
2478.53	0
2478.82	0
2479.12	0
2479.41	0
2479.71	0
2480	0
2480.3	0
2480.59	0
2480.89	0
2481.18	0
2481.48	0
2481.77	0
2482.07	0
2482.36	0
2482.66	0
2482.95	0
2483.25	0
2483.54	0
2483.84	0
2484.13	0
2484.43	0
2484.72	0
2485.02	0
2485.31	0
2485.6	0
2485.9	0
2486.19	0
2486.49	0
2486.78	0
2487.08	0
2487.37	0
2487.67	0
2487.96	0
2488.26	0
2488.55	0
2488.84	0
2489.14	0
2489.43	0
2489.73	0
2490.02	0
2490.32	0
2490.61	0
2490.9	0
2491.2	0
2491.49	0
2491.79	0
2492.08	0
2492.37	0
2492.67	0
2492.96	0
2493.26	0
2493.55	0
2493.84	0
2494.14	0
2494.43	0
2494.73	0
2495.02	0
2495.31	0
2495.61	0
2495.9	0
2496.2	0
2496.49	0
2496.78	0
2497.08	0
2497.37	0
2497.66	0
2497.96	0
2498.25	0
2498.54	0
2498.84	0
2499.13	0
2499.43	0
2499.72	0
2500.01	0
2500.31	0
2500.6	0
2500.89	0
2501.19	0
2501.48	0
2501.77	0
2502.07	0
2502.36	0
2502.65	0
2502.95	0
2503.24	0
2503.53	0
2503.82	0
2504.12	0
2504.41	0
2504.7	0
2505	0
2505.29	0
2505.58	0
2505.88	0
2506.17	0
2506.46	0
2506.76	0
2507.05	0
2507.34	0
2507.63	0
2507.93	0
2508.22	0
2508.51	0
2508.8	0
2509.1	0
2509.39	0
2509.68	0
2509.98	0
2510.27	0
2510.56	0
2510.85	0
2511.15	0
2511.44	0
2511.73	0
2512.02	0
2512.32	0
2512.61	0
2512.9	0
2513.19	0
2513.49	0
2513.78	0
2514.07	0
2514.36	0
2514.65	0
2514.95	0
2515.24	0
2515.53	0
2515.82	0
2516.12	0
2516.41	0
2516.7	0
2516.99	0
2517.28	0
2517.58	0
2517.87	0
2518.16	0
2518.45	0
2518.74	0
2519.04	0
2519.33	0
2519.62	0
2519.91	0
2520.2	0
2520.5	0
2520.79	0
2521.08	0
2521.37	0
2521.66	0
2521.95	0
2522.25	0
2522.54	0
2522.83	0
2523.12	0
2523.41	0
2523.7	0
2523.99	0
2524.29	0
2524.58	0
2524.87	0
2525.16	0
2525.45	0
2525.74	0
2526.03	0
2526.33	0
2526.62	0
2526.91	0
2527.2	0
2527.49	0
2527.78	0
2528.07	0
2528.36	0
2528.66	0
2528.95	0
2529.24	0
2529.53	0
2529.82	0
2530.11	0
2530.4	0
2530.69	0
2530.98	0
2531.27	0
2531.57	0
2531.86	0
2532.15	0
2532.44	0
2532.73	0
2533.02	0
2533.31	0
2533.6	0
2533.89	0
2534.18	0
2534.47	0
2534.76	0
2535.05	0
2535.35	0
2535.64	0
2535.93	0
2536.22	0
2536.51	0
2536.8	0
2537.09	0
2537.38	0
2537.67	0
2537.96	0
2538.25	0
2538.54	0
2538.83	0
2539.12	0
2539.41	0
2539.7	0
2539.99	0
2540.28	0
2540.57	0
2540.86	0
2541.15	0
2541.44	0
2541.73	0
2542.02	0
2542.31	0
2542.6	0
2542.89	0
2543.18	0
2543.47	0
2543.76	0
2544.05	0
2544.34	0
2544.63	0
2544.92	0
2545.21	0
2545.5	0
2545.79	0
2546.08	0
2546.37	0
2546.66	0
2546.95	0
2547.24	0
2547.53	0
2547.82	0
2548.11	0
2548.4	0
2548.69	0
2548.98	0
2549.27	0
2549.55	0
2549.84	0
2550.13	0
2550.42	0
2550.71	0
2551	0
2551.29	0
2551.58	0
2551.87	0
2552.16	0
2552.45	0
2552.74	0
2553.03	0
2553.31	0
2553.6	0
2553.89	0
2554.18	0
2554.47	0
2554.76	0
2555.05	0
2555.34	0
2555.63	0
2555.92	0
2556.2	0
2556.49	0
2556.78	0
2557.07	0
2557.36	0
2557.65	0
2557.94	0
2558.23	0
2558.51	0
2558.8	0
2559.09	0
2559.38	0
2559.67	0
2559.96	0
2560.25	0
2560.53	0
2560.82	0
2561.11	0
2561.4	0
2561.69	0
2561.98	0
2562.27	0
2562.55	0
2562.84	0
2563.13	0
2563.42	0
2563.71	0
2564	0
2564.28	0
2564.57	0
2564.86	0
2565.15	0
2565.44	0
2565.72	0
2566.01	0
2566.3	0
2566.59	0
2566.88	0
2567.16	0
2567.45	0
2567.74	0
2568.03	0
2568.32	0
2568.6	0
2568.89	0
2569.18	0
2569.47	0
2569.75	0

